# WAVELENGTH   FLUX  
  1150.0       0.0   
  1155.0       0.0   
  1160.0       0.0   
  1165.0       0.0   
  1170.0       0.0   
  1175.0       0.0   
  1180.0       0.0   
  1185.0       0.0   
  1190.0       0.0   
  1195.0       0.0   
  1200.0       0.0   
  1205.0       0.0   
  1210.0       0.0   
  1215.0       0.0   
  1220.0       0.0   
  1225.0       0.0   
  1230.0       0.0   
  1235.0       0.0   
  1240.0       0.0   
  1245.0       0.0   
  1250.0       0.0   
  1255.0       0.0   
  1260.0       0.0   
  1265.0       0.0   
  1270.0       0.0   
  1275.0       0.0   
  1280.0       0.0   
  1285.0       0.0   
  1290.0       0.0   
  1295.0       0.0   
  1300.0       0.0   
  1305.0       0.0   
  1310.0       0.0   
  1315.0       0.0   
  1320.0       0.0   
  1325.0       0.0   
  1330.0       0.0   
  1335.0       0.0   
  1340.0       0.0   
  1345.0       0.0   
  1350.0       0.0   
  1355.0       0.0   
  1360.0       0.0   
  1365.0       0.0   
  1370.0       0.0   
  1375.0       0.0   
  1380.0       0.0   
  1385.0       0.0   
  1390.0       0.0   
  1395.0       0.0   
  1400.0       0.0   
  1405.0       0.0   
  1410.0       0.0   
  1415.0       0.0   
  1420.0       0.0   
  1425.0       0.0   
  1430.0       0.0   
  1435.0       0.0   
  1440.0       0.0   
  1445.0       0.0   
  1450.0       0.0   
  1455.0       0.0   
  1460.0       0.0   
  1465.0       0.0   
  1470.0       0.0   
  1475.0       0.0   
  1480.0       0.0   
  1485.0       0.0   
  1490.0       0.0   
  1495.0       0.0   
  1500.0       0.0   
  1505.0       0.0   
  1510.0       0.0   
  1515.0       0.0   
  1520.0       0.0   
  1525.0       0.0   
  1530.0       0.0   
  1535.0       0.0   
  1540.0       0.0   
  1545.0       0.0   
  1550.0       0.0   
  1555.0       0.0   
  1560.0       0.0   
  1565.0       0.0   
  1570.0       0.0   
  1575.0       0.0   
  1580.0       0.0   
  1585.0       0.0   
  1590.0       0.0   
  1595.0       0.0   
  1600.0       0.0   
  1605.0       0.0   
  1610.0       0.0   
  1615.0       0.0   
  1620.0       0.0   
  1625.0       0.0   
  1630.0       0.0   
  1635.0       0.0   
  1640.0       0.0   
  1645.0       0.0   
  1650.0       0.0   
  1655.0       0.0   
  1660.0       0.0   
  1665.0       0.0   
  1670.0       0.0   
  1675.0       0.0   
  1680.0       0.0   
  1685.0       0.0   
  1690.0       0.0   
  1695.0       0.0   
  1700.0       0.0   
  1705.0       0.0   
  1710.0       0.0   
  1715.0       0.0   
  1720.0       0.0   
  1725.0       0.0   
  1730.0       0.0   
  1735.0       0.0   
  1740.0       0.0   
  1745.0       0.0   
  1750.0       0.0   
  1755.0       0.0   
  1760.0       0.0   
  1765.0       0.0   
  1770.0       0.0   
  1775.0       0.0   
  1780.0       0.0   
  1785.0       0.0   
  1790.0       0.0   
  1795.0       0.0   
  1800.0       0.0   
  1805.0       0.0   
  1810.0       0.0   
  1815.0       0.0   
  1820.0       0.0   
  1825.0       0.0   
  1830.0       0.0   
  1835.0       0.0   
  1840.0       0.0   
  1845.0       0.0   
  1850.0       0.0   
  1855.0       0.0   
  1860.0       0.0   
  1865.0       0.0   
  1870.0       0.0   
  1875.0       0.0   
  1880.0       0.0   
  1885.0       0.0   
  1890.0       0.0   
  1895.0       0.0   
  1900.0       0.0   
  1905.0       0.0   
  1910.0       0.0   
  1915.0       0.0   
  1920.0       0.0   
  1925.0       0.0   
  1930.0       0.0   
  1935.0       0.0   
  1940.0       0.0   
  1945.0       0.0   
  1950.0       0.0   
  1955.0       0.0   
  1960.0       0.0   
  1965.0       0.0   
  1970.0       0.0   
  1975.0       0.0   
  1980.0       0.0   
  1985.0       0.0   
  1990.0       0.0   
  1995.0       0.0   
  2000.0       0.0   
  2005.0       0.0   
  2010.0       0.0   
  2015.0       0.0   
  2020.0       0.0   
  2025.0       0.0   
  2030.0       0.0   
  2035.0       0.0   
  2040.0       0.0   
  2045.0       0.0   
  2050.0       0.0   
  2055.0       0.0   
  2060.0       0.0   
  2065.0       0.0   
  2070.0       0.0   
  2075.0       0.0   
  2080.0       0.0   
  2085.0       0.0   
  2090.0       0.0   
  2095.0       0.0   
  2100.0       0.0   
  2105.0       0.0   
  2110.0       0.0   
  2115.0       0.0   
  2120.0       0.0   
  2125.0       0.0   
  2130.0       0.0   
  2135.0       0.0   
  2140.0       0.0   
  2145.0       0.0   
  2150.0       0.0   
  2155.0       0.0   
  2160.0       0.0   
  2165.0       0.0   
  2170.0       0.0   
  2175.0       0.0   
  2180.0       0.0   
  2185.0       0.0   
  2190.0       0.0   
  2195.0       0.0   
  2200.0       0.0   
  2205.0       0.0   
  2210.0       0.0   
  2215.0       0.0   
  2220.0       0.0   
  2225.0       0.0   
  2230.0       0.0   
  2235.0       0.0   
  2240.0       0.0   
  2245.0       0.0   
  2250.0       0.0   
  2255.0       0.0   
  2260.0       0.0   
  2265.0       0.0   
  2270.0       0.0   
  2275.0       0.0   
  2280.0       0.0   
  2285.0       0.0   
  2290.0       0.0   
  2295.0       0.0   
  2300.0       0.0   
  2305.0       0.0   
  2310.0       0.0   
  2315.0       0.0   
  2320.0       0.0   
  2325.0       0.0   
  2330.0       0.0   
  2335.0       0.0   
  2340.0       0.0   
  2345.0       0.0   
  2350.0       0.0   
  2355.0       0.0   
  2360.0       0.0   
  2365.0       0.0   
  2370.0       0.0   
  2375.0       0.0   
  2380.0       0.0   
  2385.0       0.0   
  2390.0       0.0   
  2395.0       0.0   
  2400.0       0.0   
  2405.0       0.0   
  2410.0       0.0   
  2415.0       0.0   
  2420.0       0.0   
  2425.0       0.0   
  2430.0       0.0   
  2435.0       0.0   
  2440.0       0.0   
  2445.0       0.0   
  2450.0       0.0   
  2455.0       0.0   
  2460.0       0.0   
  2465.0       0.0   
  2470.0       0.0   
  2475.0       0.0   
  2480.0       0.0   
  2485.0       0.0   
  2490.0       0.0   
  2495.0       0.0   
  2500.0       0.0   
  2505.0       0.0   
  2510.0       0.0   
  2515.0       0.0   
  2520.0       0.0   
  2525.0       0.0   
  2530.0       0.0   
  2535.0       0.0   
  2540.0       0.0   
  2545.0       0.0   
  2550.0       0.0   
  2555.0       0.0   
  2560.0       0.0   
  2565.0       0.0   
  2570.0       0.0   
  2575.0       0.0   
  2580.0       0.0   
  2585.0       0.0   
  2590.0       0.0   
  2595.0       0.0   
  2600.0       0.0   
  2605.0       0.0   
  2610.0       0.0   
  2615.0       0.0   
  2620.0       0.0   
  2625.0       0.0   
  2630.0       0.0   
  2635.0       0.0   
  2640.0       0.0   
  2645.0       0.0   
  2650.0       0.0   
  2655.0       0.0   
  2660.0       0.0   
  2665.0       0.0   
  2670.0       0.0   
  2675.0       0.0   
  2680.0       0.0   
  2685.0       0.0   
  2690.0       0.0   
  2695.0       0.0   
  2700.0       0.0   
  2705.0       0.0   
  2710.0       0.0   
  2715.0       0.0   
  2720.0       0.0   
  2725.0       0.0   
  2730.0       0.0   
  2735.0       0.0   
  2740.0       0.0   
  2745.0       0.0   
  2750.0       4.7330036E-16
  2755.0       3.7812504E-15
  2760.0       8.0340796E-15
  2765.0       1.4648244E-14
  2770.0       1.889938E-14
  2775.0       2.2205616E-14
  2780.0       2.2677191E-14
  2785.0       2.2203917E-14
  2790.0       1.8422677E-14
  2795.0       1.0861922E-14
  2800.0       1.414794E-15
  2805.0       0.0   
  2810.0       0.0   
  2815.0       0.0   
  2820.0       0.0   
  2825.0       0.0   
  2830.0       0.0   
  2835.0       0.0   
  2840.0       0.0   
  2845.0       0.0   
  2850.0       7.572329E-15
  2855.0       6.144559E-14
  2860.0       1.2853389E-13
  2865.0       1.9561899E-13
  2870.0       2.5561497E-13
  2875.0       3.023777E-13
  2880.0       3.212619E-13
  2885.0       3.0849075E-13
  2890.0       2.5461255E-13
  2895.0       1.5159736E-13
  2900.0       1.9808343E-14
  2905.0       0.0   
  2910.0       0.0   
  2915.0       0.0   
  2920.0       0.0   
  2925.0       0.0   
  2930.0       0.0   
  2935.0       0.0   
  2940.0       0.0   
  2945.0       0.0   
  2950.0       1.0458659E-13
  2955.0       8.6355185E-13
  2960.0       1.9176555E-12
  2965.0       3.161196E-12
  2970.0       4.5639356E-12
  2975.0       6.098474E-12
  2980.0       7.735519E-12
  2985.0       9.447201E-12
  2990.0       1.12009195E-11
  2995.0       1.2966901E-11
  3000.0       1.4720612E-11
  3005.0       1.6436005E-11
  3010.0       1.810606E-11
  3015.0       1.9726987E-11
  3020.0       2.1295E-11
  3025.0       2.280678E-11
  3030.0       2.4261416E-11
  3035.0       2.5655561E-11
  3040.0       2.6985462E-11
  3045.0       2.8247803E-11
  3050.0       2.944259E-11
  3055.0       3.0576902E-11
  3060.0       3.1681453E-11
  3065.0       3.2794056E-11
  3070.0       3.3955807E-11
  3075.0       3.5207816E-11
  3080.0       3.658889E-11
  3085.0       3.813997E-11
  3090.0       3.9902234E-11
  3095.0       4.1914493E-11
  3100.0       4.4216332E-11
  3105.0       4.6833842E-11
  3110.0       4.97555E-11
  3115.0       5.2954537E-11
  3120.0       5.6409023E-11
  3125.0       6.0090904E-11
  3130.0       6.3973445E-11
  3135.0       6.803277E-11
  3140.0       7.224043E-11
  3145.0       7.657224E-11
  3150.0       8.1001025E-11
  3155.0       8.924443E-11
  3160.0       1.152148E-10
  3165.0       1.16331736E-10
  3170.0       1.1334815E-10
  3175.0       1.1182078E-10
  3180.0       1.1265174E-10
  3185.0       1.16166785E-10
  3190.0       1.2093782E-10
  3195.0       1.2564698E-10
  3200.0       1.3063059E-10
  3205.0       1.178406E-10
  3210.0       1.0661156E-10
  3215.0       1.09532966E-10
  3220.0       1.1628485E-10
  3225.0       1.1534508E-10
  3230.0       1.1343872E-10
  3235.0       1.1947253E-10
  3240.0       1.2945824E-10
  3245.0       1.373762E-10
  3250.0       1.4513568E-10
  3255.0       1.55875E-10
  3260.0       1.6770166E-10
  3265.0       1.779347E-10
  3270.0       1.8693004E-10
  3275.0       1.9460124E-10
  3280.0       1.9677453E-10
  3285.0       1.9126463E-10
  3290.0       1.8519887E-10
  3295.0       1.8706064E-10
  3300.0       1.9920592E-10
  3305.0       2.1876356E-10
  3310.0       2.3576233E-10
  3315.0       2.4247315E-10
  3320.0       2.4386068E-10
  3325.0       2.4760732E-10
  3330.0       2.556055E-10
  3335.0       2.656483E-10
  3340.0       2.7112027E-10
  3345.0       2.6745056E-10
  3350.0       2.594649E-10
  3355.0       2.5308533E-10
  3360.0       2.4789534E-10
  3365.0       2.4339553E-10
  3370.0       2.4520602E-10
  3375.0       2.577672E-10
  3380.0       2.760282E-10
  3385.0       2.9205563E-10
  3390.0       3.001486E-10
  3395.0       2.985344E-10
  3400.0       2.9334488E-10
  3405.0       2.9317246E-10
  3410.0       3.047642E-10
  3415.0       3.2765343E-10
  3420.0       3.4488937E-10
  3425.0       3.413594E-10
  3430.0       3.231647E-10
  3435.0       3.0332892E-10
  3440.0       2.9140118E-10
  3445.0       2.9216835E-10
  3450.0       3.019091E-10
  3455.0       3.1350675E-10
  3460.0       3.1956618E-10
  3465.0       3.1760664E-10
  3470.0       3.176496E-10
  3475.0       3.2775957E-10
  3480.0       3.3892E-10
  3485.0       3.42276E-10
  3490.0       3.463028E-10
  3495.0       3.5974643E-10
  3500.0       3.7451817E-10
  3505.0       3.813177E-10
  3510.0       3.8420986E-10
  3515.0       3.6551806E-10
  3520.0       3.5064807E-10
  3525.0       3.4821873E-10
  3530.0       3.7733183E-10
  3535.0       4.3137866E-10
  3540.0       4.75337E-10
  3545.0       4.8937465E-10
  3550.0       4.763024E-10
  3555.0       4.4742415E-10
  3560.0       4.1055734E-10
  3565.0       3.6533085E-10
  3570.0       3.2256509E-10
  3575.0       2.9399805E-10
  3580.0       2.7737893E-10
  3585.0       2.8401512E-10
  3590.0       3.1255368E-10
  3595.0       3.455604E-10
  3600.0       3.6307335E-10
  3605.0       3.5152442E-10
  3610.0       3.4691341E-10
  3615.0       3.754421E-10
  3620.0       4.0264267E-10
  3625.0       4.2172912E-10
  3630.0       4.1664108E-10
  3635.0       4.0614867E-10
  3640.0       4.0844256E-10
  3645.0       3.9824874E-10
  3650.0       4.0436843E-10
  3655.0       4.4850046E-10
  3660.0       4.995416E-10
  3665.0       5.228069E-10
  3670.0       5.1188537E-10
  3675.0       4.8792326E-10
  3680.0       4.683355E-10
  3685.0       4.6650434E-10
  3690.0       4.884239E-10
  3695.0       5.1743476E-10
  3700.0       5.1288374E-10
  3705.0       4.696936E-10
  3710.0       4.4493373E-10
  3715.0       4.2648152E-10
  3720.0       3.7492304E-10
  3725.0       3.491247E-10
  3730.0       3.3906644E-10
  3735.0       3.1010278E-10
  3740.0       2.9847513E-10
  3745.0       3.0358704E-10
  3750.0       3.3461525E-10
  3755.0       3.9715006E-10
  3760.0       4.4621032E-10
  3765.0       4.881744E-10
  3770.0       5.488441E-10
  3775.0       6.017921E-10
  3780.0       6.1518723E-10
  3785.0       5.895491E-10
  3790.0       5.542096E-10
  3795.0       5.405532E-10
  3800.0       5.5560756E-10
  3805.0       5.7847704E-10
  3810.0       5.6187577E-10
  3815.0       4.965151E-10
  3820.0       4.1931253E-10
  3825.0       3.7735337E-10
  3830.0       3.8611817E-10
  3835.0       4.2037773E-10
  3840.0       4.694194E-10
  3845.0       5.2679466E-10
  3850.0       5.356622E-10
  3855.0       4.837768E-10
  3860.0       4.5443016E-10
  3865.0       5.001556E-10
  3870.0       5.4607924E-10
  3875.0       5.4139865E-10
  3880.0       5.2442334E-10
  3885.0       5.1859106E-10
  3890.0       5.341085E-10
  3895.0       5.5286237E-10
  3900.0       5.634204E-10
  3905.0       5.951808E-10
  3910.0       6.3544314E-10
  3915.0       6.360118E-10
  3920.0       5.751139E-10
  3925.0       4.922247E-10
  3930.0       4.2628776E-10
  3935.0       4.0690307E-10
  3940.0       4.2750423E-10
  3945.0       4.726178E-10
  3950.0       5.401886E-10
  3955.0       5.3865606E-10
  3960.0       4.5371562E-10
  3965.0       4.1691706E-10
  3970.0       4.914628E-10
  3975.0       6.327388E-10
  3980.0       7.563786E-10
  3985.0       8.2998025E-10
  3990.0       8.7245877E-10
  3995.0       8.9877555E-10
  4000.0       9.2701896E-10
  4005.0       9.679629E-10
  4010.0       1.0122572E-9
  4015.0       1.0418463E-9
  4020.0       1.0331704E-9
  4025.0       9.915578E-10
  4030.0       9.396712E-10
  4035.0       9.469837E-10
  4040.0       1.0007556E-9
  4045.0       1.0195995E-9
  4050.0       1.0593498E-9
  4055.0       1.0966915E-9
  4060.0       1.0682292E-9
  4065.0       1.0211723E-9
  4070.0       1.0055234E-9
  4075.0       1.018151E-9
  4080.0       1.0617438E-9
  4085.0       1.1173787E-9
  4090.0       1.1252822E-9
  4095.0       1.0734112E-9
  4100.0       1.026769E-9
  4105.0       1.0210852E-9
  4110.0       1.0274953E-9
  4115.0       1.046082E-9
  4120.0       1.0871457E-9
  4125.0       1.1151471E-9
  4130.0       1.1006991E-9
  4135.0       1.0825145E-9
  4140.0       1.0764386E-9
  4145.0       1.0880561E-9
  4150.0       1.1438467E-9
  4155.0       1.2029486E-9
  4160.0       1.2304736E-9
  4165.0       1.211622E-9
  4170.0       1.171034E-9
  4175.0       1.1642152E-9
  4180.0       1.1901823E-9
  4185.0       1.1993708E-9
  4190.0       1.1897652E-9
  4195.0       1.1629433E-9
  4200.0       1.1201259E-9
  4205.0       1.0970334E-9
  4210.0       1.0546892E-9
  4215.0       9.226777E-10
  4220.0       7.06154E-10
  4225.0       5.1752E-10
  4230.0       5.1579596E-10
  4235.0       6.82484E-10
  4240.0       8.493583E-10
  4245.0       9.242016E-10
  4250.0       9.1162133E-10
  4255.0       8.9740165E-10
  4260.0       9.508895E-10
  4265.0       1.0073098E-9
  4270.0       9.947565E-10
  4275.0       9.813289E-10
  4280.0       1.0233067E-9
  4285.0       1.0327718E-9
  4290.0       1.009446E-9
  4295.0       1.0143703E-9
  4300.0       1.0202922E-9
  4305.0       1.0452433E-9
  4310.0       1.1251061E-9
  4315.0       1.2172842E-9
  4320.0       1.2714088E-9
  4325.0       1.3119965E-9
  4330.0       1.3733823E-9
  4335.0       1.413489E-9
  4340.0       1.4161824E-9
  4345.0       1.4192518E-9
  4350.0       1.4012387E-9
  4355.0       1.3784096E-9
  4360.0       1.4033832E-9
  4365.0       1.4494395E-9
  4370.0       1.4616099E-9
  4375.0       1.4242167E-9
  4380.0       1.3688181E-9
  4385.0       1.3699724E-9
  4390.0       1.4534794E-9
  4395.0       1.5283179E-9
  4400.0       1.5282434E-9
  4405.0       1.5009679E-9
  4410.0       1.5474502E-9
  4415.0       1.630706E-9
  4420.0       1.6570724E-9
  4425.0       1.6245959E-9
  4430.0       1.6082542E-9
  4435.0       1.6463353E-9
  4440.0       1.7443095E-9
  4445.0       1.8238847E-9
  4450.0       1.777522E-9
  4455.0       1.6671252E-9
  4460.0       1.6916022E-9
  4465.0       1.8520347E-9
  4470.0       2.0006787E-9
  4475.0       2.075758E-9
  4480.0       2.0980602E-9
  4485.0       2.1195359E-9
  4490.0       2.1470739E-9
  4495.0       2.1727458E-9
  4500.0       2.2269264E-9
  4505.0       2.2733677E-9
  4510.0       2.256612E-9
  4515.0       2.232465E-9
  4520.0       2.21959E-9
  4525.0       2.1491002E-9
  4530.0       2.0294637E-9
  4535.0       2.0110662E-9
  4540.0       2.1536284E-9
  4545.0       2.251878E-9
  4550.0       2.2692919E-9
  4555.0       2.3515798E-9
  4560.0       2.5103044E-9
  4565.0       2.6337035E-9
  4570.0       2.6677358E-9
  4575.0       2.624821E-9
  4580.0       2.5372073E-9
  4585.0       2.480551E-9
  4590.0       2.4907436E-9
  4595.0       2.5304692E-9
  4600.0       2.55037E-9
  4605.0       2.5922176E-9
  4610.0       2.6766391E-9
  4615.0       2.74059E-9
  4620.0       2.7346971E-9
  4625.0       2.6609794E-9
  4630.0       2.584314E-9
  4635.0       2.5407199E-9
  4640.0       2.5191647E-9
  4645.0       2.501485E-9
  4650.0       2.4842217E-9
  4655.0       2.5440925E-9
  4660.0       2.6674327E-9
  4665.0       2.633121E-9
  4670.0       2.4909932E-9
  4675.0       2.460992E-9
  4680.0       2.4578686E-9
  4685.0       2.4646634E-9
  4690.0       2.5271911E-9
  4695.0       2.5838105E-9
  4700.0       2.603798E-9
  4705.0       2.5955675E-9
  4710.0       2.5875946E-9
  4715.0       2.5756006E-9
  4720.0       2.5700049E-9
  4725.0       2.5689417E-9
  4730.0       2.5695726E-9
  4735.0       2.5647724E-9
  4740.0       2.555229E-9
  4745.0       2.5899611E-9
  4750.0       2.6257856E-9
  4755.0       2.55968E-9
  4760.0       2.3423568E-9
  4765.0       2.0837665E-9
  4770.0       1.9409578E-9
  4775.0       1.8822315E-9
  4780.0       1.8627735E-9
  4785.0       1.9386661E-9
  4790.0       2.1046866E-9
  4795.0       2.27257E-9
  4800.0       2.353907E-9
  4805.0       2.3233107E-9
  4810.0       2.2578361E-9
  4815.0       2.2553905E-9
  4820.0       2.2816276E-9
  4825.0       2.2836137E-9
  4830.0       2.2917066E-9
  4835.0       2.3369358E-9
  4840.0       2.367405E-9
  4845.0       2.3640891E-9
  4850.0       2.3780877E-9
  4855.0       2.3942945E-9
  4860.0       2.4138023E-9
  4865.0       2.4371294E-9
  4870.0       2.452727E-9
  4875.0       2.469726E-9
  4880.0       2.501092E-9
  4885.0       2.5350997E-9
  4890.0       2.5932918E-9
  4895.0       2.677776E-9
  4900.0       2.745868E-9
  4905.0       2.8274956E-9
  4910.0       2.9070975E-9
  4915.0       2.880579E-9
  4920.0       2.826221E-9
  4925.0       2.9000493E-9
  4930.0       3.0129728E-9
  4935.0       3.0108827E-9
  4940.0       2.984751E-9
  4945.0       3.0610512E-9
  4950.0       3.0511682E-9
  4955.0       2.7231064E-9
  4960.0       2.348222E-9
  4965.0       2.259834E-9
  4970.0       2.3700162E-9
  4975.0       2.4622198E-9
  4980.0       2.4292928E-9
  4985.0       2.387045E-9
  4990.0       2.4077424E-9
  4995.0       2.399183E-9
  5000.0       2.3224749E-9
  5005.0       2.229733E-9
  5010.0       2.176686E-9
  5015.0       2.1783428E-9
  5020.0       2.2276188E-9
  5025.0       2.2903215E-9
  5030.0       2.34112E-9
  5035.0       2.3391538E-9
  5040.0       2.3178113E-9
  5045.0       2.369385E-9
  5050.0       2.4208158E-9
  5055.0       2.420692E-9
  5060.0       2.4125386E-9
  5065.0       2.3763027E-9
  5070.0       2.3476199E-9
  5075.0       2.3611062E-9
  5080.0       2.3627547E-9
  5085.0       2.3683229E-9
  5090.0       2.408831E-9
  5095.0       2.4200475E-9
  5100.0       2.3541655E-9
  5105.0       2.2902866E-9
  5110.0       2.3386926E-9
  5115.0       2.4313138E-9
  5120.0       2.4296147E-9
  5125.0       2.3496778E-9
  5130.0       2.3476374E-9
  5135.0       2.4540925E-9
  5140.0       2.5178186E-9
  5145.0       2.4676283E-9
  5150.0       2.388322E-9
  5155.0       2.4339728E-9
  5160.0       2.565148E-9
  5165.0       2.4179307E-9
  5170.0       1.9974213E-9
  5175.0       1.7472523E-9
  5180.0       1.7646111E-9
  5185.0       1.9579218E-9
  5190.0       2.2479114E-9
  5195.0       2.4575229E-9
  5200.0       2.4438715E-9
  5205.0       2.2412165E-9
  5210.0       2.2672784E-9
  5215.0       2.6928597E-9
  5220.0       3.079248E-9
  5225.0       3.1940361E-9
  5230.0       3.2583942E-9
  5235.0       3.3674556E-9
  5240.0       3.3888488E-9
  5245.0       3.303601E-9
  5250.0       3.2428438E-9
  5255.0       3.2659109E-9
  5260.0       3.1816476E-9
  5265.0       2.9483551E-9
  5270.0       2.8820186E-9
  5275.0       3.1183682E-9
  5280.0       3.377154E-9
  5285.0       3.5143393E-9
  5290.0       3.5803245E-9
  5295.0       3.5318102E-9
  5300.0       3.4868293E-9
  5305.0       3.5790586E-9
  5310.0       3.677931E-9
  5315.0       3.7084578E-9
  5320.0       3.6505547E-9
  5325.0       3.4891667E-9
  5330.0       3.394892E-9
  5335.0       3.470056E-9
  5340.0       3.542738E-9
  5345.0       3.5726082E-9
  5350.0       3.6702035E-9
  5355.0       3.8133803E-9
  5360.0       3.87081E-9
  5365.0       3.809174E-9
  5370.0       3.7346264E-9
  5375.0       3.8118446E-9
  5380.0       3.9831005E-9
  5385.0       4.0666217E-9
  5390.0       4.0085726E-9
  5395.0       3.892872E-9
  5400.0       3.8273598E-9
  5405.0       3.7820875E-9
  5410.0       3.8034074E-9
  5415.0       3.9689465E-9
  5420.0       4.130449E-9
  5425.0       4.1178123E-9
  5430.0       3.9843258E-9
  5435.0       3.9499772E-9
  5440.0       4.0234633E-9
  5445.0       3.8932546E-9
  5450.0       3.525092E-9
  5455.0       3.2753458E-9
  5460.0       3.2808145E-9
  5465.0       3.4109187E-9
  5470.0       3.5310392E-9
  5475.0       3.5753915E-9
  5480.0       3.616356E-9
  5485.0       3.7038006E-9
  5490.0       3.7742414E-9
  5495.0       3.7376617E-9
  5500.0       3.589299E-9
  5505.0       3.4813865E-9
  5510.0       3.449189E-9
  5515.0       3.4865524E-9
  5520.0       3.6413534E-9
  5525.0       3.7746757E-9
  5530.0       3.8032906E-9
  5535.0       3.80871E-9
  5540.0       3.8379855E-9
  5545.0       3.8819588E-9
  5550.0       3.939992E-9
  5555.0       3.980382E-9
  5560.0       3.9623944E-9
  5565.0       3.9049954E-9
  5570.0       3.901073E-9
  5575.0       3.961905E-9
  5580.0       3.9881907E-9
  5585.0       3.8905346E-9
  5590.0       3.74569E-9
  5595.0       3.6078824E-9
  5600.0       3.500949E-9
  5605.0       3.5454246E-9
  5610.0       3.6669017E-9
  5615.0       3.6922112E-9
  5620.0       3.673201E-9
  5625.0       3.6878045E-9
  5630.0       3.7120798E-9
  5635.0       3.75111E-9
  5640.0       3.797E-9
  5645.0       3.8595087E-9
  5650.0       3.9694323E-9
  5655.0       4.0475165E-9
  5660.0       4.0106944E-9
  5665.0       3.9280867E-9
  5670.0       3.8989847E-9
  5675.0       3.948841E-9
  5680.0       4.0268904E-9
  5685.0       4.0650234E-9
  5690.0       4.1001567E-9
  5695.0       4.1554085E-9
  5700.0       4.172228E-9
  5705.0       4.190433E-9
  5710.0       4.225984E-9
  5715.0       4.2708943E-9
  5720.0       4.31717E-9
  5725.0       4.3298845E-9
  5730.0       4.3508184E-9
  5735.0       4.4202504E-9
  5740.0       4.492796E-9
  5745.0       4.576564E-9
  5750.0       4.6663824E-9
  5755.0       4.681995E-9
  5760.0       4.553701E-9
  5765.0       4.396663E-9
  5770.0       4.3589026E-9
  5775.0       4.390942E-9
  5780.0       4.421592E-9
  5785.0       4.4636024E-9
  5790.0       4.556134E-9
  5795.0       4.6933994E-9
  5800.0       4.8103397E-9
  5805.0       4.79398E-9
  5810.0       4.6882187E-9
  5815.0       4.5002793E-9
  5820.0       4.405638E-9
  5825.0       4.412678E-9
  5830.0       4.4849973E-9
  5835.0       4.524907E-9
  5840.0       4.541068E-9
  5845.0       4.5030975E-9
  5850.0       4.320501E-9
  5855.0       4.1195243E-9
  5860.0       3.996014E-9
  5865.0       3.937563E-9
  5870.0       3.8701153E-9
  5875.0       3.749776E-9
  5880.0       3.4719407E-9
  5885.0       2.9254161E-9
  5890.0       2.173767E-9
  5895.0       1.9159072E-9
  5900.0       2.3027285E-9
  5905.0       2.9966174E-9
  5910.0       3.3816936E-9
  5915.0       3.5678427E-9
  5920.0       3.6223786E-9
  5925.0       3.65852E-9
  5930.0       3.759387E-9
  5935.0       3.8614787E-9
  5940.0       3.9693564E-9
  5945.0       4.0247095E-9
  5950.0       3.9746824E-9
  5955.0       3.8938848E-9
  5960.0       3.8750634E-9
  5965.0       3.9336343E-9
  5970.0       3.9906305E-9
  5975.0       4.0198453E-9
  5980.0       4.0599355E-9
  5985.0       4.1414925E-9
  5990.0       4.225201E-9
  5995.0       4.3389896E-9
  6000.0       4.374586E-9
  6005.0       4.2771635E-9
  6010.0       4.3136965E-9
  6015.0       4.3787884E-9
  6020.0       4.430104E-9
  6025.0       4.517531E-9
  6030.0       4.610007E-9
  6035.0       4.6427426E-9
  6040.0       4.639205E-9
  6045.0       4.7277977E-9
  6050.0       4.803047E-9
  6055.0       4.7907145E-9
  6060.0       4.7679216E-9
  6065.0       4.7614495E-9
  6070.0       4.8237605E-9
  6075.0       4.8696798E-9
  6080.0       4.863344E-9
  6085.0       4.830941E-9
  6090.0       4.8677227E-9
  6095.0       4.9157896E-9
  6100.0       4.8139515E-9
  6105.0       4.705862E-9
  6110.0       4.8634634E-9
  6115.0       4.8953273E-9
  6120.0       4.656025E-9
  6125.0       4.5439528E-9
  6130.0       4.8687796E-9
  6135.0       4.9932964E-9
  6140.0       5.0050555E-9
  6145.0       5.083569E-9
  6150.0       5.000854E-9
  6155.0       4.730378E-9
  6160.0       4.2734314E-9
  6165.0       3.8855164E-9
  6170.0       3.92263E-9
  6175.0       4.0831556E-9
  6180.0       4.183141E-9
  6185.0       4.100814E-9
  6190.0       3.9289687E-9
  6195.0       3.8714805E-9
  6200.0       3.9276467E-9
  6205.0       3.9844914E-9
  6210.0       3.9527652E-9
  6215.0       3.7702597E-9
  6220.0       3.6198804E-9
  6225.0       3.5326917E-9
  6230.0       3.5125767E-9
  6235.0       3.5755916E-9
  6240.0       3.621087E-9
  6245.0       3.6641559E-9
  6250.0       3.7651477E-9
  6255.0       3.8264822E-9
  6260.0       3.870064E-9
  6265.0       3.9758046E-9
  6270.0       4.0528882E-9
  6275.0       4.0698045E-9
  6280.0       4.089675E-9
  6285.0       4.2203077E-9
  6290.0       4.3534576E-9
  6295.0       4.421662E-9
  6300.0       4.516435E-9
  6305.0       4.637447E-9
  6310.0       4.7771342E-9
  6315.0       4.8821907E-9
  6320.0       4.957932E-9
  6325.0       5.0245275E-9
  6330.0       5.0934066E-9
  6335.0       5.154812E-9
  6340.0       5.218206E-9
  6345.0       5.2865885E-9
  6350.0       5.30803E-9
  6355.0       5.2454063E-9
  6360.0       5.1211E-9
  6365.0       5.0735123E-9
  6370.0       5.087125E-9
  6375.0       5.060191E-9
  6380.0       4.928484E-9
  6385.0       4.8566773E-9
  6390.0       4.936973E-9
  6395.0       5.118896E-9
  6400.0       5.3023963E-9
  6405.0       5.451698E-9
  6410.0       5.5656346E-9
  6415.0       5.591627E-9
  6420.0       5.5942917E-9
  6425.0       5.6262737E-9
  6430.0       5.6635643E-9
  6435.0       5.6399103E-9
  6440.0       5.614705E-9
  6445.0       5.7367906E-9
  6450.0       5.7947434E-9
  6455.0       5.855678E-9
  6460.0       5.8804126E-9
  6465.0       5.861656E-9
  6470.0       5.9861107E-9
  6475.0       6.067328E-9
  6480.0       6.1043965E-9
  6485.0       6.0409158E-9
  6490.0       5.9744187E-9
  6495.0       5.846478E-9
  6500.0       5.8963416E-9
  6505.0       6.136682E-9
  6510.0       6.2802585E-9
  6515.0       6.3387384E-9
  6520.0       6.3845422E-9
  6525.0       6.4575163E-9
  6530.0       6.50098E-9
  6535.0       6.529482E-9
  6540.0       6.5445396E-9
  6545.0       6.462615E-9
  6550.0       6.35375E-9
  6555.0       6.268855E-9
  6560.0       6.2144063E-9
  6565.0       6.1489422E-9
  6570.0       6.150635E-9
  6575.0       6.147473E-9
  6580.0       6.2169514E-9
  6585.0       6.2699814E-9
  6590.0       6.260013E-9
  6595.0       6.193346E-9
  6600.0       6.184264E-9
  6605.0       6.1743073E-9
  6610.0       6.149944E-9
  6615.0       6.124285E-9
  6620.0       6.0681975E-9
  6625.0       5.9788396E-9
  6630.0       5.931208E-9
  6635.0       5.918832E-9
  6640.0       5.8877054E-9
  6645.0       5.8460445E-9
  6650.0       5.724639E-9
  6655.0       5.577796E-9
  6660.0       5.5029035E-9
  6665.0       5.5031135E-9
  6670.0       5.5439706E-9
  6675.0       5.4900093E-9
  6680.0       5.3271396E-9
  6685.0       5.186409E-9
  6690.0       5.158935E-9
  6695.0       5.155469E-9
  6700.0       5.1683675E-9
  6705.0       5.1927453E-9
  6710.0       5.1330824E-9
  6715.0       4.957304E-9
  6720.0       4.78743E-9
  6725.0       4.766705E-9
  6730.0       4.802754E-9
  6735.0       4.8528817E-9
  6740.0       4.87501E-9
  6745.0       4.8320574E-9
  6750.0       4.7533986E-9
  6755.0       4.745922E-9
  6760.0       4.797127E-9
  6765.0       4.8261617E-9
  6770.0       4.824855E-9
  6775.0       4.8251585E-9
  6780.0       4.76723E-9
  6785.0       4.6370885E-9
  6790.0       4.570373E-9
  6795.0       4.5615636E-9
  6800.0       4.570124E-9
  6805.0       4.6037605E-9
  6810.0       4.586696E-9
  6815.0       4.5768673E-9
  6820.0       4.5573962E-9
  6825.0       4.5819504E-9
  6830.0       4.6100594E-9
  6835.0       4.650557E-9
  6840.0       4.7826325E-9
  6845.0       4.8164055E-9
  6850.0       4.82772E-9
  6855.0       4.837783E-9
  6860.0       4.849158E-9
  6865.0       4.8644773E-9
  6870.0       4.886444E-9
  6875.0       4.917838E-9
  6880.0       4.961246E-9
  6885.0       5.0177587E-9
  6890.0       5.08443E-9
  6895.0       5.1568008E-9
  6900.0       5.230363E-9
  6905.0       5.3017937E-9
  6910.0       5.3708296E-9
  6915.0       5.438389E-9
  6920.0       5.5054223E-9
  6925.0       5.5719536E-9
  6930.0       5.635552E-9
  6935.0       5.6929137E-9
  6940.0       5.740756E-9
  6945.0       5.7774043E-9
  6950.0       5.80528E-9
  6955.0       5.8284333E-9
  6960.0       5.850871E-9
  6965.0       5.8754E-9
  6970.0       5.8922116E-9
  6975.0       5.8596847E-9
  6980.0       5.863222E-9
  6985.0       5.9066676E-9
  6990.0       5.9262106E-9
  6995.0       5.938907E-9
  7000.0       5.997708E-9
  7005.0       6.048844E-9
  7010.0       6.112313E-9
  7015.0       6.1988654E-9
  7020.0       6.264938E-9
  7025.0       6.32076E-9
  7030.0       6.423603E-9
  7035.0       6.537578E-9
  7040.0       6.638889E-9
  7045.0       6.74841E-9
  7050.0       6.6797474E-9
  7055.0       6.316174E-9
  7060.0       5.995652E-9
  7065.0       5.9202305E-9
  7070.0       5.979748E-9
  7075.0       6.029201E-9
  7080.0       5.998138E-9
  7085.0       5.844547E-9
  7090.0       5.5302154E-9
  7095.0       5.3909504E-9
  7100.0       5.415112E-9
  7105.0       5.489741E-9
  7110.0       5.568866E-9
  7115.0       5.613839E-9
  7120.0       5.5924785E-9
  7125.0       5.339053E-9
  7130.0       4.9935487E-9
  7135.0       4.961433E-9
  7140.0       5.1440447E-9
  7145.0       5.234375E-9
  7150.0       5.2969296E-9
  7155.0       5.472067E-9
  7160.0       5.567609E-9
  7165.0       5.5885625E-9
  7170.0       5.630941E-9
  7175.0       5.64893E-9
  7180.0       5.6793548E-9
  7185.0       5.71946E-9
  7190.0       5.733196E-9
  7195.0       5.7809615E-9
  7200.0       5.7246505E-9
  7205.0       5.683345E-9
  7210.0       5.7869753E-9
  7215.0       5.9521135E-9
  7220.0       6.071472E-9
  7225.0       6.141785E-9
  7230.0       6.176479E-9
  7235.0       6.1822614E-9
  7240.0       6.2309784E-9
  7245.0       6.2735577E-9
  7250.0       6.3765992E-9
  7255.0       6.4481696E-9
  7260.0       6.5480403E-9
  7265.0       6.6028645E-9
  7270.0       6.6698425E-9
  7275.0       6.7069656E-9
  7280.0       6.7811E-9
  7285.0       6.8797354E-9
  7290.0       6.905194E-9
  7295.0       6.9570483E-9
  7300.0       7.0470674E-9
  7305.0       7.0618844E-9
  7310.0       7.1093975E-9
  7315.0       7.1681425E-9
  7320.0       7.1911272E-9
  7325.0       7.1616824E-9
  7330.0       7.163994E-9
  7335.0       7.259143E-9
  7340.0       7.3015545E-9
  7345.0       7.1472894E-9
  7350.0       7.146108E-9
  7355.0       7.1181496E-9
  7360.0       7.1054984E-9
  7365.0       7.199189E-9
  7370.0       7.3236284E-9
  7375.0       7.4073307E-9
  7380.0       7.44111E-9
  7385.0       7.45688E-9
  7390.0       7.451615E-9
  7395.0       7.450883E-9
  7400.0       7.4441484E-9
  7405.0       7.4747515E-9
  7410.0       7.5326065E-9
  7415.0       7.536498E-9
  7420.0       7.544131E-9
  7425.0       7.556245E-9
  7430.0       7.600307E-9
  7435.0       7.639822E-9
  7440.0       7.648554E-9
  7445.0       7.613255E-9
  7450.0       7.614901E-9
  7455.0       7.669908E-9
  7460.0       7.663157E-9
  7465.0       7.625413E-9
  7470.0       7.688751E-9
  7475.0       7.727056E-9
  7480.0       7.753803E-9
  7485.0       7.7574285E-9
  7490.0       7.727418E-9
  7495.0       7.703925E-9
  7500.0       7.753203E-9
  7505.0       7.779601E-9
  7510.0       7.7518525E-9
  7515.0       7.760305E-9
  7520.0       7.787216E-9
  7525.0       7.787715E-9
  7530.0       7.783943E-9
  7535.0       7.82086E-9
  7540.0       7.874959E-9
  7545.0       7.885736E-9
  7550.0       7.820511E-9
  7555.0       7.7937505E-9
  7560.0       7.776109E-9
  7565.0       7.7651805E-9
  7570.0       7.78489E-9
  7575.0       7.773674E-9
  7580.0       7.757553E-9
  7585.0       7.74314E-9
  7590.0       7.7307E-9
  7595.0       7.720491E-9
  7600.0       7.7127895E-9
  7605.0       7.707598E-9
  7610.0       7.704452E-9
  7615.0       7.7026066E-9
  7620.0       7.7013205E-9
  7625.0       7.699895E-9
  7630.0       7.6975555E-9
  7635.0       7.693604E-9
  7640.0       7.687234E-9
  7645.0       7.677794E-9
  7650.0       7.664519E-9
  7655.0       7.647067E-9
  7660.0       7.625992E-9
  7665.0       7.602138E-9
  7670.0       7.57645E-9
  7675.0       7.549802E-9
  7680.0       7.523108E-9
  7685.0       7.497279E-9
  7690.0       7.473252E-9
  7695.0       7.451889E-9
  7700.0       7.4341147E-9
  7705.0       7.4204665E-9
  7710.0       7.41072E-9
  7715.0       7.404324E-9
  7720.0       7.4000948E-9
  7725.0       7.3944793E-9
  7730.0       7.398155E-9
  7735.0       7.4478534E-9
  7740.0       7.452224E-9
  7745.0       7.374602E-9
  7750.0       7.259169E-9
  7755.0       7.251575E-9
  7760.0       7.3035475E-9
  7765.0       7.339879E-9
  7770.0       7.3894846E-9
  7775.0       7.443229E-9
  7780.0       7.45666E-9
  7785.0       7.4080475E-9
  7790.0       7.4013973E-9
  7795.0       7.452727E-9
  7800.0       7.48347E-9
  7805.0       7.540445E-9
  7810.0       7.593021E-9
  7815.0       7.62248E-9
  7820.0       7.605716E-9
  7825.0       7.551968E-9
  7830.0       7.485444E-9
  7835.0       7.4406987E-9
  7840.0       7.48735E-9
  7845.0       7.561448E-9
  7850.0       7.608071E-9
  7855.0       7.632006E-9
  7860.0       7.6570315E-9
  7865.0       7.683451E-9
  7870.0       7.703099E-9
  7875.0       7.723379E-9
  7880.0       7.766278E-9
  7885.0       7.807278E-9
  7890.0       7.824147E-9
  7895.0       7.847808E-9
  7900.0       7.852653E-9
  7905.0       7.817677E-9
  7910.0       7.773662E-9
  7915.0       7.769187E-9
  7920.0       7.805545E-9
  7925.0       7.843918E-9
  7930.0       7.878836E-9
  7935.0       7.918987E-9
  7940.0       7.889261E-9
  7945.0       7.865776E-9
  7950.0       7.884605E-9
  7955.0       7.967334E-9
  7960.0       7.9795335E-9
  7965.0       8.03301E-9
  7970.0       8.078404E-9
  7975.0       8.073737E-9
  7980.0       8.050829E-9
  7985.0       8.070991E-9
  7990.0       8.073921E-9
  7995.0       8.051701E-9
  8000.0       8.026013E-9
  8005.0       8.064782E-9
  8010.0       8.110449E-9
  8015.0       8.137402E-9
  8020.0       8.144629E-9
  8025.0       8.106534E-9
  8030.0       8.115431E-9
  8035.0       8.169585E-9
  8040.0       8.187207E-9
  8045.0       8.158697E-9
  8050.0       8.163619E-9
  8055.0       8.229608E-9
  8060.0       8.254163E-9
  8065.0       8.241263E-9
  8070.0       8.217943E-9
  8075.0       8.222954E-9
  8080.0       8.24259E-9
  8085.0       8.228529E-9
  8090.0       8.202731E-9
  8095.0       8.175095E-9
  8100.0       8.123572E-9
  8105.0       8.143622E-9
  8110.0       8.178571E-9
  8115.0       8.147685E-9
  8120.0       8.164496E-9
  8125.0       8.206872E-9
  8130.0       8.184942E-9
  8135.0       8.128595E-9
  8140.0       8.100562E-9
  8145.0       8.041945E-9
  8150.0       7.97378E-9
  8155.0       7.909517E-9
  8160.0       7.837488E-9
  8165.0       7.764114E-9
  8170.0       7.80292E-9
  8175.0       7.7656575E-9
  8180.0       7.599202E-9
  8185.0       7.4165025E-9
  8190.0       7.462144E-9
  8195.0       7.3895845E-9
  8200.0       7.474474E-9
  8205.0       7.752422E-9
  8210.0       7.881472E-9
  8215.0       7.894164E-9
  8220.0       7.868778E-9
  8225.0       7.818406E-9
  8230.0       7.794895E-9
  8235.0       7.926074E-9
  8240.0       8.059098E-9
  8245.0       8.126226E-9
  8250.0       8.193864E-9
  8255.0       8.187206E-9
  8260.0       8.176879E-9
  8265.0       8.187667E-9
  8270.0       8.090378E-9
  8275.0       7.971421E-9
  8280.0       7.910885E-9
  8285.0       7.885058E-9
  8290.0       7.875581E-9
  8295.0       7.887745E-9
  8300.0       7.933243E-9
  8305.0       7.928448E-9
  8310.0       7.928136E-9
  8315.0       7.941252E-9
  8320.0       7.9355305E-9
  8325.0       7.902674E-9
  8330.0       7.865573E-9
  8335.0       7.890457E-9
  8340.0       7.911749E-9
  8345.0       7.9389535E-9
  8350.0       7.948067E-9
  8355.0       7.927084E-9
  8360.0       7.932235E-9
  8365.0       7.924513E-9
  8370.0       7.981447E-9
  8375.0       8.000603E-9
  8380.0       7.952334E-9
  8385.0       7.9227025E-9
  8390.0       7.947582E-9
  8395.0       8.057313E-9
  8400.0       8.089664E-9
  8405.0       8.14925E-9
  8410.0       8.101445E-9
  8415.0       8.037275E-9
  8420.0       8.037888E-9
  8425.0       7.97532E-9
  8430.0       7.841912E-9
  8435.0       7.665785E-9
  8440.0       7.69884E-9
  8445.0       7.94378E-9
  8450.0       7.98266E-9
  8455.0       7.940458E-9
  8460.0       7.941541E-9
  8465.0       7.91942E-9
  8470.0       7.847886E-9
  8475.0       7.93151E-9
  8480.0       8.020272E-9
  8485.0       8.042239E-9
  8490.0       7.968115E-9
  8495.0       7.735042E-9
  8500.0       7.509385E-9
  8505.0       7.740374E-9
  8510.0       7.8866025E-9
  8515.0       7.786208E-9
  8520.0       7.780344E-9
  8525.0       7.877175E-9
  8530.0       7.870884E-9
  8535.0       7.650032E-9
  8540.0       7.105109E-9
  8545.0       6.8497576E-9
  8550.0       7.4295237E-9
  8555.0       7.869422E-9
  8560.0       8.014359E-9
  8565.0       8.057121E-9
  8570.0       8.071792E-9
  8575.0       8.088447E-9
  8580.0       8.093234E-9
  8585.0       8.089408E-9
  8590.0       8.116645E-9
  8595.0       8.121468E-9
  8600.0       8.131255E-9
  8605.0       8.1692E-9
  8610.0       8.173021E-9
  8615.0       8.147434E-9
  8620.0       8.1533384E-9
  8625.0       8.1705505E-9
  8630.0       8.176829E-9
  8635.0       8.176039E-9
  8640.0       8.188537E-9
  8645.0       8.181627E-9
  8650.0       8.133622E-9
  8655.0       7.920956E-9
  8660.0       7.4507245E-9
  8665.0       7.219815E-9
  8670.0       7.698047E-9
  8675.0       7.954408E-9
  8680.0       7.977488E-9
  8685.0       7.919125E-9
  8690.0       7.751746E-9
  8695.0       7.864264E-9
  8700.0       8.051439E-9
  8705.0       8.130924E-9
  8710.0       8.123966E-9
  8715.0       8.101336E-9
  8720.0       8.106719E-9
  8725.0       8.139831E-9
  8730.0       8.146059E-9
  8735.0       8.122692E-9
  8740.0       8.1119405E-9
  8745.0       8.169521E-9
  8750.0       8.182536E-9
  8755.0       8.160702E-9
  8760.0       8.129903E-9
  8765.0       8.108435E-9
  8770.0       8.0753E-9
  8775.0       8.069221E-9
  8780.0       8.116563E-9
  8785.0       8.180366E-9
  8790.0       8.1879845E-9
  8795.0       8.149449E-9
  8800.0       8.069078E-9
  8805.0       7.840761E-9
  8810.0       7.831727E-9
  8815.0       8.071229E-9
  8820.0       8.085645E-9
  8825.0       7.965699E-9
  8830.0       8.036244E-9
  8835.0       8.143194E-9
  8840.0       8.152843E-9
  8845.0       8.152382E-9
  8850.0       8.171735E-9
  8855.0       8.170599E-9
  8860.0       8.093544E-9
  8865.0       8.0062925E-9
  8870.0       7.960361E-9
  8875.0       7.953534E-9
  8880.0       8.023658E-9
  8885.0       8.069311E-9
  8890.0       8.078485E-9
  8895.0       8.0727585E-9
  8900.0       8.088009E-9
  8905.0       8.150053E-9
  8910.0       8.1312574E-9
  8915.0       8.118098E-9
  8920.0       8.102879E-9
  8925.0       8.022574E-9
  8930.0       7.989059E-9
  8935.0       7.977272E-9
  8940.0       7.957053E-9
  8945.0       7.914191E-9
  8950.0       7.869294E-9
  8955.0       7.861629E-9
  8960.0       7.873728E-9
  8965.0       7.83577E-9
  8970.0       7.834064E-9
  8975.0       7.83687E-9
  8980.0       7.804017E-9
  8985.0       7.7651805E-9
  8990.0       7.657172E-9
  8995.0       7.738522E-9
  9000.0       7.720001E-9
  9005.0       7.74823E-9
  9010.0       7.812049E-9
  9015.0       7.844065E-9
  9020.0       7.899828E-9
  9025.0       7.970482E-9
  9030.0       8.071065E-9
  9035.0       8.229428E-9
  9040.0       8.292217E-9
  9045.0       8.291155E-9
  9050.0       8.250675E-9
  9055.0       8.172211E-9
  9060.0       8.091193E-9
  9065.0       7.987012E-9
  9070.0       7.890265E-9
  9075.0       7.893363E-9
  9080.0       7.93014E-9
  9085.0       7.924832E-9
  9090.0       7.936711E-9
  9095.0       8.054999E-9
  9100.0       8.125106E-9
  9105.0       8.150036E-9
  9110.0       8.1962614E-9
  9115.0       8.194374E-9
  9120.0       8.111317E-9
  9125.0       8.121314E-9
  9130.0       8.085299E-9
  9135.0       8.01326E-9
  9140.0       8.029446E-9
  9145.0       8.078856E-9
  9150.0       8.013427E-9
  9155.0       7.94442E-9
  9160.0       8.015612E-9
  9165.0       8.111564E-9
  9170.0       8.150584E-9
  9175.0       8.151386E-9
  9180.0       8.26274E-9
  9185.0       8.344191E-9
  9190.0       8.416464E-9
  9195.0       8.480919E-9
  9200.0       8.509475E-9
  9205.0       8.49319E-9
  9210.0       8.473928E-9
  9215.0       8.467233E-9
  9220.0       8.476283E-9
  9225.0       8.488501E-9
  9230.0       8.483635E-9
  9235.0       8.454269E-9
  9240.0       8.470323E-9
  9245.0       8.452468E-9
  9250.0       8.427038E-9
  9255.0       8.397519E-9
  9260.0       8.358981E-9
  9265.0       8.30963E-9
  9270.0       8.252468E-9
  9275.0       8.192306E-9
  9280.0       8.1339255E-9
  9285.0       8.08049E-9
  9290.0       8.031096E-9
  9295.0       7.983217E-9
  9300.0       7.9345535E-9
  9305.0       7.886745E-9
  9310.0       7.85158E-9
  9315.0       7.844824E-9
  9320.0       7.881563E-9
  9325.0       7.966785E-9
  9330.0       8.079016E-9
  9335.0       8.186678E-9
  9340.0       8.258449E-9
  9345.0       8.275423E-9
  9350.0       8.251249E-9
  9355.0       8.212063E-9
  9360.0       8.184402E-9
  9365.0       8.187806E-9
  9370.0       8.223388E-9
  9375.0       8.285271E-9
  9380.0       8.3664995E-9
  9385.0       8.456287E-9
  9390.0       8.534124E-9
  9395.0       8.575719E-9
  9400.0       8.557583E-9
  9405.0       8.46879E-9
  9410.0       8.330688E-9
  9415.0       8.177092E-9
  9420.0       8.042219E-9
  9425.0       7.95187E-9
  9430.0       7.909916E-9
  9435.0       7.911829E-9
  9440.0       7.951908E-9
  9445.0       8.021333E-9
  9450.0       8.103106E-9
  9455.0       8.177063E-9
  9460.0       8.223508E-9
  9465.0       8.230345E-9
  9470.0       8.20488E-9
  9475.0       8.161969E-9
  9480.0       8.116852E-9
  9485.0       8.080854E-9
  9490.0       8.055212E-9
  9495.0       8.037261E-9
  9500.0       8.024116E-9
  9505.0       8.014331E-9
  9510.0       8.010135E-9
  9515.0       8.015282E-9
  9520.0       8.033337E-9
  9525.0       8.0649185E-9
  9530.0       8.103047E-9
  9535.0       8.137781E-9
  9540.0       8.159307E-9
  9545.0       8.16186E-9
  9550.0       8.150204E-9
  9555.0       8.133169E-9
  9560.0       8.119723E-9
  9565.0       8.1154585E-9
  9570.0       8.117077E-9
  9575.0       8.117964E-9
  9580.0       8.111426E-9
  9585.0       8.094308E-9
  9590.0       8.072471E-9
  9595.0       8.055246E-9
  9600.0       8.051908E-9
  9605.0       8.066949E-9
  9610.0       8.092704E-9
  9615.0       8.1168405E-9
  9620.0       8.127073E-9
  9625.0       8.116691E-9
  9630.0       8.093625E-9
  9635.0       8.071306E-9
  9640.0       8.063322E-9
  9645.0       8.078434E-9
  9650.0       8.113031E-9
  9655.0       8.1587554E-9
  9660.0       8.206832E-9
  9665.0       8.249379E-9
  9670.0       8.280446E-9
  9675.0       8.294937E-9
  9680.0       8.2881115E-9
  9685.0       8.258482E-9
  9690.0       8.212951E-9
  9695.0       8.161596E-9
  9700.0       8.114566E-9
  9705.0       8.079292E-9
  9710.0       8.056004E-9
  9715.0       8.042205E-9
  9720.0       8.035196E-9
  9725.0       8.032848E-9
  9730.0       8.034648E-9
  9735.0       8.040667E-9
  9740.0       8.051047E-9
  9745.0       8.065505E-9
  9750.0       8.082985E-9
  9755.0       8.101985E-9
  9760.0       8.120969E-9
  9765.0       8.138617E-9
  9770.0       8.154093E-9
  9775.0       8.166899E-9
  9780.0       8.176575E-9
  9785.0       8.183716E-9
  9790.0       8.191472E-9
  9795.0       8.203961E-9
  9800.0       8.225214E-9
  9805.0       8.256422E-9
  9810.0       8.291698E-9
  9815.0       8.322401E-9
  9820.0       8.339962E-9
  9825.0       8.339154E-9
  9830.0       8.323513E-9
  9835.0       8.299967E-9
  9840.0       8.275518E-9
  9845.0       8.254896E-9
  9850.0       8.236791E-9
  9855.0       8.217912E-9
  9860.0       8.19558E-9
  9865.0       8.167796E-9
  9870.0       8.133814E-9
  9875.0       8.093387E-9
  9880.0       8.046411E-9
  9885.0       7.9935765E-9
  9890.0       7.937874E-9
  9895.0       7.883167E-9
  9900.0       7.8333615E-9
  9905.0       7.792199E-9
  9910.0       7.762908E-9
  9915.0       7.748528E-9
  9920.0       7.751811E-9
  9925.0       7.772795E-9
  9930.0       7.804551E-9
  9935.0       7.8374045E-9
  9940.0       7.861813E-9
  9945.0       7.871649E-9
  9950.0       7.869808E-9
  9955.0       7.862823E-9
  9960.0       7.857547E-9
  9965.0       7.858795E-9
  9970.0       7.865337E-9
  9975.0       7.8737115E-9
  9980.0       7.880387E-9
  9985.0       7.883516E-9
  9990.0       7.885586E-9
  9995.0       7.8907645E-9
  10000.0      7.903139E-9
  10005.0      7.924157E-9
  10010.0      7.948459E-9
  10015.0      7.968028E-9
  10020.0      7.975053E-9
  10025.0      7.965571E-9
  10030.0      7.945841E-9
  10035.0      7.926101E-9
  10040.0      7.916527E-9
  10045.0      7.923773E-9
  10050.0      7.9450055E-9
  10055.0      7.973773E-9
  10060.0      8.003431E-9
  10065.0      8.028669E-9
  10070.0      8.047811E-9
  10075.0      8.0604305E-9
  10080.0      8.0663725E-9
  10085.0      8.065945E-9
  10090.0      8.060806E-9
  10095.0      8.05305E-9
  10100.0      8.044838E-9
  10105.0      8.037444E-9
  10110.0      8.030107E-9
  10115.0      8.021216E-9
  10120.0      8.00925E-9
  10125.0      7.993916E-9
  10130.0      7.97809E-9
  10135.0      7.965945E-9
  10140.0      7.961511E-9
  10145.0      7.966598E-9
  10150.0      7.977143E-9
  10155.0      7.986902E-9
  10160.0      7.989598E-9
  10165.0      7.98142E-9
  10170.0      7.964777E-9
  10175.0      7.944552E-9
  10180.0      7.9257045E-9
  10185.0      7.911943E-9
  10190.0      7.903717E-9
  10195.0      7.900127E-9
  10200.0      7.900216E-9
  10205.0      7.903099E-9
  10210.0      7.908175E-9
  10215.0      7.914916E-9
  10220.0      7.922722E-9
  10225.0      7.930322E-9
  10230.0      7.9345455E-9
  10235.0      7.931558E-9
  10240.0      7.917703E-9
  10245.0      7.891718E-9
  10250.0      7.858814E-9
  10255.0      7.826642E-9
  10260.0      7.802798E-9
  10265.0      7.792083E-9
  10270.0      7.791985E-9
  10275.0      7.797268E-9
  10280.0      7.802473E-9
  10285.0      7.8033535E-9
  10290.0      7.798709E-9
  10295.0      7.788453E-9
  10300.0      7.77275E-9
  10305.0      7.7523294E-9
  10310.0      7.729569E-9
  10315.0      7.707394E-9
  10320.0      7.688802E-9
  10325.0      7.675924E-9
  10330.0      7.668814E-9
  10335.0      7.666758E-9
  10340.0      7.668929E-9
  10345.0      7.6745295E-9
  10350.0      7.682729E-9
  10355.0      7.692784E-9
  10360.0      7.703658E-9
  10365.0      7.714309E-9
  10370.0      7.723523E-9
  10375.0      7.729999E-9
  10380.0      7.732575E-9
  10385.0      7.731351E-9
  10390.0      7.729694E-9
  10395.0      7.7323286E-9
  10400.0      7.743746E-9
  10405.0      7.766081E-9
  10410.0      7.795146E-9
  10415.0      7.824262E-9
  10420.0      7.846802E-9
  10425.0      7.858752E-9
  10430.0      7.862816E-9
  10435.0      7.864349E-9
  10440.0      7.868685E-9
  10445.0      7.8788895E-9
  10450.0      7.892131E-9
  10455.0      7.903329E-9
  10460.0      7.907463E-9
  10465.0      7.9014E-9
  10470.0      7.886819E-9
  10475.0      7.867236E-9
  10480.0      7.846347E-9
  10485.0      7.827587E-9
  10490.0      7.81382E-9
  10495.0      7.807635E-9
  10500.0      7.811461E-9
  10505.0      7.825868E-9
  10510.0      7.8467615E-9
  10515.0      7.868229E-9
  10520.0      7.884377E-9
  10525.0      7.891202E-9
  10530.0      7.889803E-9
  10535.0      7.883169E-9
  10540.0      7.874422E-9
  10545.0      7.8662294E-9
  10550.0      7.859845E-9
  10555.0      7.856058E-9
  10560.0      7.855562E-9
  10565.0      7.858688E-9
  10570.0      7.864703E-9
  10575.0      7.872493E-9
  10580.0      7.880942E-9
  10585.0      7.888565E-9
  10590.0      7.8932025E-9
  10595.0      7.8924325E-9
  10600.0      7.8838225E-9
  10605.0      7.866135E-9
  10610.0      7.840711E-9
  10615.0      7.81013E-9
  10620.0      5.8364287E-9
